#      T [K]      F [kJ/mol]    S [J/K/mol]  C_v [J/K/mol]     E [kJ/mol]
       0.000      95.4941579      0.0000000      0.0000000     95.4941579
      10.000      95.4841546      2.9335898      5.6853083     95.5134905
      20.000      95.4146977     12.2837263     27.2477913     95.6603723
      30.000      95.2069016     31.0093137     71.9034523     96.1371810
      40.000      94.7601060     59.9568875    134.3068966     97.1583815
      50.000      93.9798839     97.2376377    202.3840395     98.8417658
      60.000      92.7973251    139.9421183    266.9831156    101.1938522
      70.000      91.1716447    185.4919881    324.0863345    104.1560839
      80.000      89.0842078    232.0475171    372.9625964    107.6480092
      90.000      86.5313162    278.4321618    414.3130031    111.5902108
     100.000      83.5185073    323.9440970    449.2563315    115.9129170
     110.000      80.0566717    368.1910947    478.9005833    120.5576921
     120.000      76.1595781    410.9741201    504.2020205    125.4764725
     130.000      71.8423480    452.2117879    525.9426330    130.6298805
     140.000      67.1205348    491.8930192    544.7487279    135.9855575
     150.000      62.0095783    530.0477956    561.1192810    141.5167477
     160.000      56.5244915    566.7291887    575.4528074    147.2011617
     170.000      50.6796892    602.0023460    588.0695972    153.0200881
     180.000      44.4889038    635.9377641    599.2291379    158.9577014
     190.000      37.9651537    668.6072131    609.1434560    165.0005242
     200.000      31.1207438    700.0813079    617.9872597    171.1370054
     210.000      23.9672848    730.4281071    625.9056577    177.3571873
     220.000      16.5157231    759.7123527    633.0200643    183.6524407
     230.000       8.7763756    787.9951114    639.4327552    190.0152513
     240.000       0.7589678    815.3336637    645.2304136    196.4390471
     250.000      -7.5273291    841.7815440    650.4869179    202.9180569
     260.000     -16.0738610    867.3886711    655.2655533    209.4471935
     270.000     -24.8724553    892.2015287    659.6207826    216.0219574
     280.000     -33.9153885    916.2633710    663.5996768    222.6383554
     290.000     -43.1953538    939.6144380    667.2430785    229.2928332
     300.000     -52.7054331    962.2921694    670.5865567    235.9822177
     310.000     -62.4390692    984.3314123    673.6611931    242.7036686
     320.000     -72.3900414   1005.7646190    676.4942364    249.4546366
     330.000     -82.5524425   1026.6220324    679.1096471    256.2328282
     340.000     -92.9206570   1046.9318584    681.5285549    263.0361749
     350.000    -103.4893423   1066.7204261    683.7696442    269.8628068
     360.000    -114.2534102   1086.0123350    685.8494800    276.7110304
     370.000    -125.2080103   1104.8305905    687.7827852    283.5793082
     380.000    -136.3485151   1123.1967280    689.5826763    290.4662416
     390.000    -147.6705052   1141.1309267    691.2608656    297.3705562
     400.000    -159.1697570   1158.6521133    692.8278345    304.2910883
     410.000    -170.8422301   1175.7780578    694.2929829    311.2267736
     420.000    -182.6840565   1192.5254602    695.6647580    318.1766368
     430.000    -194.6915300   1208.9100300    696.9507656    325.1397829
     440.000    -206.8610971   1224.9465595    698.1578673    332.1153891
     450.000    -219.1893476   1240.6489902    699.2922645    339.1026980
     460.000    -231.6730071   1256.0304739    700.3595720    346.1010109
     470.000    -244.3089287   1271.1034288    701.3648822    353.1096828
     480.000    -257.0940865   1285.8795912    702.3128216    360.1281173
     490.000    -270.0255683   1300.3700620    703.2076001    367.1557621
     500.000    -283.1005705   1314.5853508    704.0530543    374.1921049
     510.000    -296.3163913   1328.5354152    704.8526866    381.2366705
     520.000    -309.6704262   1342.2296978    705.6096984    388.2890166
     530.000    -323.1601626   1355.6771599    706.3270202    395.3487321
     540.000    -336.7831751   1368.8863127    707.0073389    402.4154337
     550.000    -350.5371215   1381.8652460    707.6531206    409.4887638
     560.000    -364.4197383   1394.6216552    708.2666322    416.5683886
     570.000    -378.4288373   1407.1628652    708.8499600    423.6539959
     580.000    -392.5623016   1419.4958538    709.4050266    430.7452936
     590.000    -406.8180825   1431.6272723    709.9336058    437.8420081
     600.000    -421.1941963   1443.5634654    710.4373359    444.9438829
     610.000    -435.6887213   1455.3104891    710.9177321    452.0506771
     620.000    -450.2997949   1466.8741279    711.3761972    459.1621644
     630.000    -465.0256110   1478.2599100    711.8140310    466.2781323
     640.000    -479.8644178   1489.4731221    712.2324398    473.3983803
     650.000    -494.8145151   1500.5188233    712.6325438    480.5227200
     660.000    -509.8742521   1511.4018572    713.0153844    487.6509737
     670.000    -525.0420255   1522.1268641    713.3819306    494.7829734
     680.000    -540.3162775   1532.6982919    713.7330853    501.9185610
     690.000    -555.6954937   1543.1204063    714.0696900    509.0575866
     700.000    -571.1782016   1553.3973007    714.3925302    516.1999089
     710.000    -586.7629687   1563.5329050    714.7023395    523.3453938
     720.000    -602.4484013   1573.5309942    714.9998038    530.4939145
     730.000    -618.2331423   1583.3951962    715.2855646    537.6453509
     740.000    -634.1158706   1593.1289992    715.5602228    544.7995888
     750.000    -650.0952989   1602.7357588    715.8243415    551.9565202
     760.000    -666.1701730   1612.2187044    716.0784489    559.1160423
     770.000    -682.3392706   1621.5809456    716.3230406    566.2780575
     780.000    -698.6013996   1630.8254776    716.5585824    573.4424729
     790.000    -714.9553974   1639.9551872    716.7855118    580.6092004
     800.000    -731.4001299   1648.9728572    717.0042407    587.7781558
     810.000    -747.9344901   1657.8811719    717.2151567    594.9492592
     820.000    -764.5573975   1666.6827215    717.4186249    602.1224342
     830.000    -781.2677970   1675.3800060    717.6149895    609.2976080
     840.000    -798.0646581   1683.9754398    717.8045752    616.4747114
     850.000    -814.9469740   1692.4713553    717.9876885    623.6536779
     860.000    -831.9137610   1700.8700064    718.1646187    630.8344445
     870.000    -848.9640572   1709.1735722    718.3356394    638.0169506
     880.000    -866.0969225   1717.3841602    718.5010093    645.2011385
     890.000    -883.3114373   1725.5038091    718.6609732    652.3869528
     900.000    -900.6067021   1733.5344920    718.8157628    659.5743407
     910.000    -917.9818370   1741.4781192    718.9655975    666.7632515
     920.000    -935.4359805   1749.3365406    719.1106854    673.9536368
     930.000    -952.9682897   1757.1115482    719.2512239    681.1454501
     940.000    -970.5779392   1764.8048787    719.3874001    688.3386468
     950.000    -988.2641207   1772.4182156    719.5193918    695.5331841
     960.000   -1006.0260423   1779.9531912    719.6473679    702.7290212
     970.000   -1023.8629286   1787.4113889    719.7714886    709.9261186
     980.000   -1041.7740193   1794.7943449    719.8919067    717.1244386
     990.000   -1059.7585696   1802.1035501    720.0087672    724.3239449
    1000.000   -1077.8158493   1809.3404519    720.1222081    731.5246026
    1010.000   -1095.9451424   1816.5064559    720.2323611    738.7263781
    1020.000   -1114.1457467   1823.6029274    720.3393513    745.9292393
    1030.000   -1132.4169736   1830.6311928    720.4432982    753.1331550
    1040.000   -1150.7581475   1837.5925413    720.5443155    760.3380955
    1050.000   -1169.1686055   1844.4882261    720.6425119    767.5440319
    1060.000   -1187.6476972   1851.3194659    720.7379910    774.7509366
    1070.000   -1206.1947840   1858.0874458    720.8308517    781.9587830
    1080.000   -1224.8092391   1864.7933188    720.9211884    789.1675453
    1090.000   -1243.4904471   1871.4382071    721.0090915    796.3771987
    1100.000   -1262.2378036   1878.0232026    721.0946472    803.5877193
    1110.000   -1281.0507150   1884.5493685    721.1779381    810.7990841
    1120.000   -1299.9285983   1891.0177402    721.2590431    818.0112707
    1130.000   -1318.8708805   1897.4293260    721.3380377    825.2242579
    1140.000   -1337.8769988   1903.7851083    721.4149942    832.4380247
    1150.000   -1356.9463999   1910.0860444    721.4899819    839.6525512
    1160.000   -1376.0785400   1916.3330672    721.5630671    846.8678180
    1170.000   -1395.2728846   1922.5270863    721.6343135    854.0838064
    1180.000   -1414.5289080   1928.6689884    721.7037819    861.3004983
    1190.000   -1433.8460935   1934.7596385    721.7715310    868.5178763
    1200.000   -1453.2239327   1940.7998801    721.8376166    875.7359234
    1210.000   -1472.6619258   1946.7905364    721.9020927    882.9546233
    1220.000   -1492.1595809   1952.7324106    721.9650110    890.1739601
    1230.000   -1511.7164140   1958.6262866    722.0264210    897.3939185
    1240.000   -1531.3319492   1964.4729297    722.0863705    904.6144836
    1250.000   -1551.0057177   1970.2730871    722.1449053    911.8356412
    1260.000   -1570.7372584   1976.0274885    722.2020693    919.0573772
    1270.000   -1590.5261173   1981.7368468    722.2579049    926.2796781
    1280.000   -1610.3718475   1987.4018582    722.3124529    933.5025310
    1290.000   -1630.2740089   1993.0232031    722.3657524    940.7259230
    1300.000   -1650.2321682   1998.6015463    722.4178410    947.9498420
    1310.000   -1670.2458987   2004.1375379    722.4687553    955.1742759
    1320.000   -1690.3147799   2009.6318130    722.5185299    962.3992133
    1330.000   -1710.4383979   2015.0849931    722.5671987    969.6246428
    1340.000   -1730.6163448   2020.4976855    722.6147940    976.8505537
    1350.000   -1750.8482187   2025.8704844    722.6613471    984.0769353
    1360.000   -1771.1336235   2031.2039711    722.7068882    991.3037773
    1370.000   -1791.4721690   2036.4987144    722.7514462    998.5310697
    1380.000   -1811.8634705   2041.7552706    722.7950493   1005.7588030
    1390.000   -1832.3071489   2046.9741845    722.8377243   1012.9869676
    1400.000   -1852.8028305   2052.1559892    722.8794974   1020.2155545
    1410.000   -1873.3501467   2057.3012067    722.9203939   1027.4445547
    1420.000   -1893.9487343   2062.4103478    722.9604379   1034.6739595
    1430.000   -1914.5982351   2067.4839131    722.9996529   1041.9037607
    1440.000   -1935.2982957   2072.5223927    723.0380617   1049.1339499
    1450.000   -1956.0485676   2077.5262668    723.0756861   1056.3645193
    1460.000   -1976.8487072   2082.4960057    723.1125473   1063.5954611
    1470.000   -1997.6983755   2087.4320702    723.1486657   1070.8267677
    1480.000   -2018.5972379   2092.3349121    723.1840612   1078.0584320
    1490.000   -2039.5449644   2097.2049739    723.2187527   1085.2904466
    1500.000   -2060.5412295   2102.0426895    723.2527590   1092.5228047
    1510.000   -2081.5857118   2106.8484844    723.2860977   1099.7554996
    1520.000   -2102.6780942   2111.6227755    723.3187864   1106.9885245
    1530.000   -2123.8180637   2116.3659718    723.3508416   1114.2218732
    1540.000   -2145.0053113   2121.0784744    723.3822797   1121.4555393
    1550.000   -2166.2395322   2125.7606767    723.4131163   1128.6895168
    1560.000   -2187.5204252   2130.4129646    723.4433667   1135.9237997
    1570.000   -2208.8476930   2135.0357167    723.4730456   1143.1583822
    1580.000   -2230.2210423   2139.6293044    723.5021673   1150.3932587
    1590.000   -2251.6401831   2144.1940924    723.5307456   1157.6284237
    1600.000   -2273.1048293   2148.7304382    723.5587939   1164.8638719
    1610.000   -2294.6146982   2153.2386933    723.5863252   1172.0995979
    1620.000   -2316.1695107   2157.7192021    723.6133521   1179.3355967
    1630.000   -2337.7689909   2162.1723032    723.6398869   1186.5718633
    1640.000   -2359.4128665   2166.5983289    723.6659414   1193.8083928
    1650.000   -2381.1008683   2170.9976054    723.6915271   1201.0451806
    1660.000   -2402.8327305   2175.3704532    723.7166552   1208.2822219
    1670.000   -2424.6081904   2179.7171871    723.7413365   1215.5195122
    1680.000   -2446.4269882   2184.0381163    723.7655814   1222.7570471
    1690.000   -2468.2888677   2188.3335444    723.7894003   1229.9948224
    1700.000   -2490.1935751   2192.6037699    723.8128030   1237.2328337
    1710.000   -2512.1408600   2196.8490860    723.8357991   1244.4710771
    1720.000   -2534.1304748   2201.0697809    723.8583980   1251.7095484
    1730.000   -2556.1621745   2205.2661377    723.8806088   1258.9482438
    1740.000   -2578.2357173   2209.4384349    723.9024403   1266.1871593
    1750.000   -2600.3508639   2213.5869459    723.9239011   1273.4262913
    1760.000   -2622.5073779   2217.7119398    723.9449994   1280.6656361
    1770.000   -2644.7050252   2221.8136810    723.9657435   1287.9051901
    1780.000   -2666.9435748   2225.8924296    723.9861411   1295.1449498
    1790.000   -2689.2227980   2229.9484413    724.0062000   1302.3849118
    1800.000   -2711.5424687   2233.9819675    724.0259275   1309.6250727
    1810.000   -2733.9023633   2237.9932556    724.0453310   1316.8654293
    1820.000   -2756.3022605   2241.9825488    724.0644175   1324.1059783
    1830.000   -2778.7419417   2245.9500865    724.0831938   1331.3467166
    1840.000   -2801.2211905   2249.8961042    724.1016666   1338.5876412
    1850.000   -2823.7397928   2253.8208334    724.1198424   1345.8287490
    1860.000   -2846.2975370   2257.7245022    724.1377275   1353.0700370
    1870.000   -2868.8942134   2261.6073348    724.1553282   1360.3115026
    1880.000   -2891.5296150   2265.4695519    724.1726503   1367.5531427
    1890.000   -2914.2035365   2269.3113710    724.1896997   1374.7949547
    1900.000   -2936.9157751   2273.1330057    724.2064822   1382.0369358
    1910.000   -2959.6661300   2276.9346667    724.2230032   1389.2790834
    1920.000   -2982.4544025   2280.7165612    724.2392681   1396.5213950
    1930.000   -3005.2803960   2284.4788933    724.2552822   1403.7638680
    1940.000   -3028.1439159   2288.2218638    724.2710507   1411.0064998
    1950.000   -3051.0447694   2291.9456706    724.2865784   1418.2492882
    1960.000   -3073.9827660   2295.6505085    724.3018704   1425.4922306
    1970.000   -3096.9577170   2299.3365694    724.3169312   1432.7353248
    1980.000   -3119.9694355   2303.0040424    724.3317657   1439.9785685
    1990.000   -3143.0177365   2306.6531135    724.3463781   1447.2219594
    2000.000   -3166.1024370   2310.2839662    724.3607731   1454.4654953