#      T [K]      F [kJ/mol]    S [J/K/mol]  C_v [J/K/mol]     E [kJ/mol]
       0.000      80.1604471      0.0000000      0.0000000     80.1604471
      10.000      80.1475810      3.9372068      8.0706994     80.1869530
      20.000      80.0529799     16.4604576     33.7407110     80.3821890
      30.000      79.7912208     37.0772650     71.9363317     80.9035387
      40.000      79.2916656     63.6252363    114.9309532     81.8366751
      50.000      78.5065385     93.8419663    156.9638434     83.1986369
      60.000      77.4087851    125.8901177    194.9417536     84.9621922
      70.000      75.9869804    158.4811535    227.9142588     87.0806612
      80.000      74.2400904    190.8051065    256.1065639     89.5044989
      90.000      72.1733423    222.3971687    280.1885981     92.1890875
     100.000      69.7954051    253.0162015    300.8936022     95.0970253
     110.000      67.1166215    282.5567888    318.8668935     98.1978683
     120.000      64.1479585    310.9920433    334.6283866    101.4670036
     130.000      60.9004124    338.3384977    348.5810474    104.8844171
     140.000      57.3846885    364.6352998    361.0330742    108.4336304
     150.000      53.6110398    389.9321981    372.2206283    112.1008695
     160.000      49.5891989    414.2827725    382.3267558    115.8744425
     170.000      45.3283595    437.7407328    391.4957912    119.7442841
     180.000      40.8371863    460.3579870    399.8438325    123.7016239
     190.000      36.1238379    482.1837137    407.4661762    127.7387435
     200.000      31.1959965    503.2639952    414.4425391    131.8487955
     210.000      26.0608994    523.6417555    420.8407195    136.0256680
     220.000      20.7253699    543.3568565    426.7191832    140.2638783
     230.000      15.1958475    562.4462711    432.1289115    144.5584899
     240.000       9.4784155    580.9442859    437.1147489    148.9050442
     250.000       3.5788269    598.8827115    441.7164067    153.2995047
     260.000      -2.4974721    616.2910847    445.9692316    157.7382099
     270.000      -8.7453197    633.1968591    449.9048085    162.2178323
     280.000     -15.1598193    649.6255806    453.5514456    166.7353433
     290.000     -21.7363206    665.6010474    456.9345747    171.2879831
     300.000     -28.4704035    681.1454550    460.0770870    175.8732330
     310.000     -35.3578621    696.2795287    462.9996189    180.4887918
     320.000     -42.3946910    711.0226420    465.7208001    185.1325544
     330.000     -49.5770723    725.3929250    468.2574688    189.8025929
     340.000     -56.9013635    739.4073623    470.6248612    194.4971397
     350.000     -64.3640866    753.0818819    472.8367787    199.2145720
     360.000     -71.9619180    766.4314357    474.9057361    203.9533988
     370.000     -79.6916790    779.4700736    476.8430928    208.7122482
     380.000     -87.5503272    792.2110099    478.6591704    213.4898565
     390.000     -95.5349484    804.6666851    480.3633564    218.2850587
     400.000    -103.6427492    816.8488212    481.9641983    223.0967793
     410.000    -111.8710500    828.7684738    483.4694859    227.9240243
     420.000    -120.2172786    840.4360782    484.8863262    232.7658742
     430.000    -128.6789643    851.8614930    486.2212101    237.6214777
     440.000    -137.2537323    863.0540395    487.4800714    242.4900451
     450.000    -145.9392983    874.0225381    488.6683410    247.3708438
     460.000    -154.7334641    884.7753420    489.7909938    252.2631932
     470.000    -163.6341126    895.3203678    490.8525925    257.1664602
     480.000    -172.6392039    905.6651240    491.8573257    262.0800556
     490.000    -181.7467713    915.8167375    492.8090423    267.0034301
     500.000    -190.9549175    925.7819780    493.7112833    271.9360715
     510.000    -200.2618111    935.5672801    494.5673089    276.8775017
     520.000    -209.6656837    945.1787643    495.3801246    281.8272737
     530.000    -219.1648265    954.6222564    496.1525031    286.7849694
     540.000    -228.7575874    963.9033054    496.8870054    291.7501975
     550.000    -238.4423688    973.0271999    497.5859991    296.7225912
     560.000    -248.2176244    981.9989837    498.2516748    301.7018065
     570.000    -258.0818575    990.8234700    498.8860617    306.6875204
     580.000    -268.0336181    999.5052549    499.4910410    311.6794297
     590.000    -278.0715016   1008.0487298    500.0683581    316.6772490
     600.000    -288.1941457   1016.4580930    500.6196344    321.6807101
     610.000    -298.4002298   1024.7373602    501.1463769    326.6895600
     620.000    -308.6884721   1032.8903752    501.6499878    331.7035605
     630.000    -319.0576287   1040.9208186    502.1317728    336.7224870
     640.000    -329.5064917   1048.8322171    502.5929489    341.7461273
     650.000    -340.0338875   1056.6279517    503.0346511    346.7742810
     660.000    -350.6386760   1064.3112650    503.4579392    351.8067589
     670.000    -361.3197485   1071.8852690    503.8638029    356.8433818
     680.000    -372.0760270   1079.3529514    504.2531681    361.8839800
     690.000    -382.9064627   1086.7171822    504.6269009    366.9283930
     700.000    -393.8100350   1093.9807194    504.9858123    371.9764686
     710.000    -404.7857503   1101.1462150    505.3306625    377.0280624
     720.000    -415.8326410   1108.2162199    505.6621642    382.0830374
     730.000    -426.9497646   1115.1931890    505.9809867    387.1412634
     740.000    -438.1362025   1122.0794858    506.2877580    392.2026169
     750.000    -449.3910596   1128.8773867    506.5830687    397.2669804
     760.000    -460.7134629   1135.5890854    506.8674742    402.3342420
     770.000    -472.1025611   1142.2166965    507.1414970    407.4042953
     780.000    -483.5575234   1148.7622594    507.4056293    412.4770389
     790.000    -495.0775393   1155.2277415    507.6603348    417.5523764
     800.000    -506.6618176   1161.6150416    507.9060507    422.6302157
     810.000    -518.3095857   1167.9259932    508.1431897    427.7104689
     820.000    -530.0200889   1174.1623672    508.3721411    432.7930522
     830.000    -541.7925901   1180.3258744    508.5932728    437.8778856
     840.000    -553.6263690   1186.4181687    508.8069326    442.9648927
     850.000    -565.5207215   1192.4408493    509.0134493    448.0540005
     860.000    -577.4749591   1198.3954629    509.2131340    453.1451389
     870.000    -589.4884088   1204.2835059    509.4062815    458.2382413
     880.000    -601.5604122   1210.1064271    509.5931707    463.3332437
     890.000    -613.6903250   1215.8656289    509.7740662    468.4300848
     900.000    -625.8775169   1221.5624698    509.9492188    473.5287059
     910.000    -638.1213709   1227.1982656    510.1188666    478.6290508
     920.000    -650.4212830   1232.7742920    510.2832354    483.7310656
     930.000    -662.7766616   1238.2917852    510.4425398    488.8346986
     940.000    -675.1869276   1243.7519445    510.5969837    493.9399002
     950.000    -687.6515133   1249.1559327    510.7467610    499.0466228
     960.000    -700.1698627   1254.5048784    510.8920560    504.1548205
     970.000    -712.7414310   1259.7998769    511.0330441    509.2644495
     980.000    -725.3656840   1265.0419914    511.1698923    514.3754676
     990.000    -738.0420980   1270.2322547    511.3027598    519.4878341
    1000.000    -750.7701596   1275.3716696    511.4317980    524.6015100
    1010.000    -763.5493652   1280.4612108    511.5571516    529.7164578
    1020.000    -776.3792207   1285.5018255    511.6789582    534.8326412
    1030.000    -789.2592417   1290.4944342    511.7973493    539.9500256
    1040.000    -802.1889524   1295.4399323    511.9124504    545.0685772
    1050.000    -815.1678862   1300.3391907    512.0243814    550.1882640
    1060.000    -828.1955849   1305.1930562    512.1332567    555.3090547
    1070.000    -841.2715988   1310.0023533    512.2391856    560.4309193
    1080.000    -854.3954861   1314.7678843    512.3422727    565.5538289
    1090.000    -867.5668132   1319.4904301    512.4426181    570.6777556
    1100.000    -880.7851539   1324.1707513    512.5403174    575.8026725
    1110.000    -894.0500899   1328.8095886    512.6354622    580.9285535
    1120.000    -907.3612098   1333.4076637    512.7281401    586.0553735
    1130.000    -920.7181096   1337.9656796    512.8184351    591.1831083
    1140.000    -934.1203922   1342.4843217    512.9064276    596.3117345
    1150.000    -947.5676671   1346.9642578    512.9921948    601.4412295
    1160.000    -961.0595505   1351.4061394    513.0758106    606.5715712
    1170.000    -974.5956651   1355.8106016    513.1573459    611.7027387
    1180.000    -988.1756399   1360.1782638    513.2368687    616.8347115
    1190.000   -1001.7991097   1364.5097306    513.3144442    621.9674696
    1200.000   -1015.4657158   1368.8055915    513.3901352    627.1009941
    1210.000   -1029.1751048   1373.0664224    513.4640019    632.2352662
    1220.000   -1042.9269293   1377.2927849    513.5361020    637.3702682
    1230.000   -1056.7208474   1381.4852277    513.6064911    642.5059826
    1240.000   -1070.5565226   1385.6442864    513.6752227    647.6423925
    1250.000   -1084.4336236   1389.7704843    513.7423480    652.7794817
    1260.000   -1098.3518245   1393.8643323    513.8079165    657.9172343
    1270.000   -1112.3108041   1397.9263300    513.8719757    663.0556350
    1280.000   -1126.3102465   1401.9569652    513.9345712    668.1946689
    1290.000   -1140.3498405   1405.9567148    513.9957472    673.3343217
    1300.000   -1154.4292794   1409.9260452    514.0555459    678.4745793
    1310.000   -1168.5482615   1413.8654119    514.1140083    683.6154281
    1320.000   -1182.7064893   1417.7752609    514.1711736    688.7568551
    1330.000   -1196.9036698   1421.6560280    514.2270797    693.8988474
    1340.000   -1211.1395143   1425.5081395    514.2817632    699.0413926
    1350.000   -1225.4137384   1429.3320127    514.3352593    704.1844787
    1360.000   -1239.7260618   1433.1280557    514.3876019    709.3280940
    1370.000   -1254.0762081   1436.8966680    514.4388239    714.4722270
    1380.000   -1268.4639050   1440.6382405    514.4889568    719.6168668
    1390.000   -1282.8888841   1444.3531559    514.5380312    724.7620026
    1400.000   -1297.3508805   1448.0417890    514.5860765    729.9076240
    1410.000   -1311.8496335   1451.7045066    514.6331211    735.0537208
    1420.000   -1326.3848855   1455.3416681    514.6791926    740.2002832
    1430.000   -1340.9563828   1458.9536254    514.7243175    745.3473015
    1440.000   -1355.5638751   1462.5407233    514.7685214    750.4947665
    1450.000   -1370.2071155   1466.1032997    514.8118291    755.6426690
    1460.000   -1384.8858605   1469.6416854    514.8542646    760.7910001
    1470.000   -1399.5998697   1473.1562048    514.8958510    765.9397514
    1480.000   -1414.3489061   1476.6471760    514.9366108    771.0889144
    1490.000   -1429.1327358   1480.1149105    514.9765656    776.2384810
    1500.000   -1443.9511279   1483.5597140    515.0157365    781.3884431
    1510.000   -1458.8038546   1486.9818859    515.0541436    786.5387931
    1520.000   -1473.6906911   1490.3817202    515.0918067    791.6895235
    1530.000   -1488.6114155   1493.7595048    515.1287448    796.8406269
    1540.000   -1503.5658087   1497.1155225    515.1649763    801.9920960
    1550.000   -1518.5536543   1500.4500506    515.2005191    807.1439241
    1560.000   -1533.5747390   1503.7633610    515.2353903    812.2961042
    1570.000   -1548.6288517   1507.0557207    515.2696069    817.4486297
    1580.000   -1563.7157844   1510.3273915    515.3031850    822.6014942
    1590.000   -1578.8353314   1513.5786307    515.3361403    827.7546913
    1600.000   -1593.9872898   1516.8096905    515.3684881    832.9082150
    1610.000   -1609.1714588   1520.0208186    515.4002431    838.0620591
    1620.000   -1624.3876405   1523.2122583    515.4314198    843.2162179
    1630.000   -1639.6356391   1526.3842483    515.4620321    848.3706856
    1640.000   -1654.9152614   1529.5370233    515.4920934    853.5254567
    1650.000   -1670.2263163   1532.6708134    515.5216168    858.6805257
    1660.000   -1685.5686152   1535.7858449    515.5506151    863.8358873
    1670.000   -1700.9419714   1538.8823400    515.5791006    868.9915363
    1680.000   -1716.3462009   1541.9605170    515.6070853    874.1474676
    1690.000   -1731.7811214   1545.0205904    515.6345808    879.3036764
    1700.000   -1747.2465531   1548.0627710    515.6615984    884.4601577
    1710.000   -1762.7423179   1551.0872659    515.6881491    889.6169068
    1720.000   -1778.2682401   1554.0942786    515.7142435    894.7739191
    1730.000   -1793.8241459   1557.0840093    515.7398921    899.9311902
    1740.000   -1809.4098633   1560.0566545    515.7651049    905.0887155
    1750.000   -1825.0252227   1563.0124077    515.7898916    910.2464908
    1760.000   -1840.6700558   1565.9514590    515.8142619    915.4045120
    1770.000   -1856.3441968   1568.8739952    515.8382249    920.5627747
    1780.000   -1872.0474813   1571.7802002    515.8617896    925.7212751
    1790.000   -1887.7797470   1574.6702548    515.8849649    930.8800092
    1800.000   -1903.5408331   1577.5443368    515.9077592    936.0389732
    1810.000   -1919.3305810   1580.4026211    515.9301807    941.1981632
    1820.000   -1935.1488335   1583.2452797    515.9522377    946.3575756
    1830.000   -1950.9954351   1586.0724819    515.9739378    951.5172067
    1840.000   -1966.8702322   1588.8843942    515.9952888    956.6770531
    1850.000   -1982.7730726   1591.6811805    516.0162980    961.8371114
    1860.000   -1998.7038059   1594.4630021    516.0369728    966.9973780
    1870.000   -2014.6622833   1597.2300176    516.0573201    972.1578497
    1880.000   -2030.6483574   1599.9823834    516.0773468    977.3185233
    1890.000   -2046.6618826   1602.7202530    516.0970596    982.4793956
    1900.000   -2062.7027147   1605.4437780    516.1164650    987.6404635
    1910.000   -2078.7707108   1608.1531072    516.1355693    992.8017239
    1920.000   -2094.8657300   1610.8483874    516.1543788    997.9631739
    1930.000   -2110.9876322   1613.5297631    516.1728995   1003.1248105
    1940.000   -2127.1362794   1616.1973764    516.1911371   1008.2866309
    1950.000   -2143.3115344   1618.8513675    516.2090975   1013.4486323
    1960.000   -2159.5132618   1621.4918744    516.2267862   1018.6108120
    1970.000   -2175.7413274   1624.1190328    516.2442087   1023.7731672
    1980.000   -2191.9955984   1626.7329766    516.2613702   1028.9356953
    1990.000   -2208.2759433   1629.3338377    516.2782760   1034.0983937
    2000.000   -2224.5822319   1631.9217460    516.2949311   1039.2612600